#oghma_csv {"title":"Position - Photon density @ 738.00 nm","type":"zxy-d","x_mul":1.00e+03,"y_mul":1.00e+09,"z_mul":1.00e+03,"x_offset":1.612450e-03,"z_offset":1.612450e-03,"x_label":"x-position","y_label":"y-position","z_label":"z-position","data_label":"","x_units":"mm","y_units":"nm","z_units":"mm","rgb":"b80000","data_units":"a.u.","x_len":1,"y_len":200,"z_len":1,"cols":"yd"}*
#y-position (nm) ,  (a.u.) 
8.500000e-10 5.459645e+30
2.550000e-09 5.458696e+30
4.250000e-09 5.455767e+30
5.950000e-09 5.450855e+30
7.650000e-09 5.443961e+30
9.350000e-09 5.435095e+30
1.105000e-08 5.424266e+30
1.275000e-08 5.411490e+30
1.445000e-08 5.396789e+30
1.615000e-08 5.380185e+30
1.785000e-08 5.361708e+30
1.955000e-08 5.341393e+30
2.125000e-08 5.319275e+30
2.295000e-08 5.295396e+30
2.465000e-08 5.269805e+30
2.635000e-08 5.242549e+30
2.805000e-08 5.213680e+30
2.975000e-08 5.183258e+30
3.145000e-08 5.151343e+30
3.315000e-08 5.117998e+30
3.485000e-08 5.083292e+30
3.655000e-08 5.047295e+30
3.825000e-08 5.010079e+30
3.995000e-08 4.971723e+30
4.165000e-08 4.932304e+30
4.335000e-08 4.891904e+30
4.505000e-08 4.850606e+30
4.675000e-08 4.808497e+30
4.845000e-08 4.765663e+30
5.015000e-08 4.722194e+30
5.185000e-08 4.678181e+30
5.355000e-08 4.633715e+30
5.525000e-08 4.588891e+30
5.695000e-08 4.543800e+30
5.865000e-08 4.498538e+30
6.035000e-08 4.453200e+30
6.205000e-08 4.407880e+30
6.375000e-08 4.362674e+30
6.545000e-08 4.317677e+30
6.715000e-08 4.272981e+30
6.885000e-08 4.228682e+30
7.055000e-08 4.184871e+30
7.225000e-08 4.141641e+30
7.395000e-08 4.099081e+30
7.565000e-08 4.057281e+30
7.735000e-08 4.016326e+30
7.905000e-08 3.976302e+30
8.075000e-08 3.937294e+30
8.245000e-08 3.899380e+30
8.415000e-08 3.862638e+30
8.585000e-08 3.827145e+30
8.755000e-08 3.792972e+30
8.925000e-08 3.760190e+30
9.095000e-08 3.728866e+30
9.265000e-08 3.699060e+30
9.435000e-08 3.670835e+30
9.605000e-08 3.644245e+30
9.775000e-08 3.619343e+30
9.945000e-08 3.596177e+30
1.011500e-07 3.895623e+30
1.028500e-07 3.873059e+30
1.045500e-07 3.851717e+30
1.062500e-07 3.831654e+30
1.079500e-07 3.812927e+30
1.096500e-07 3.795583e+30
1.113500e-07 3.779672e+30
1.130500e-07 3.765235e+30
1.147500e-07 3.752312e+30
1.164500e-07 3.740937e+30
1.181500e-07 3.731143e+30
1.198500e-07 3.722953e+30
1.215500e-07 3.716390e+30
1.232500e-07 3.711473e+30
1.249500e-07 3.708214e+30
1.266500e-07 3.706622e+30
1.283500e-07 3.706702e+30
1.300500e-07 4.126596e+30
1.317500e-07 4.129377e+30
1.334500e-07 4.132969e+30
1.351500e-07 4.137079e+30
1.368500e-07 4.141415e+30
1.385500e-07 4.145694e+30
1.402500e-07 4.149639e+30
1.419500e-07 4.152978e+30
1.436500e-07 4.155448e+30
1.453500e-07 4.156794e+30
1.470500e-07 4.156770e+30
1.487500e-07 4.155141e+30
1.504500e-07 4.151682e+30
1.521500e-07 4.146181e+30
1.538500e-07 4.138434e+30
1.555500e-07 4.128255e+30
1.572500e-07 4.115467e+30
1.589500e-07 4.099908e+30
1.606500e-07 4.081430e+30
1.623500e-07 4.059900e+30
1.640500e-07 4.035200e+30
1.657500e-07 4.007226e+30
1.674500e-07 3.975889e+30
1.691500e-07 3.941118e+30
1.708500e-07 3.902857e+30
1.725500e-07 3.861065e+30
1.742500e-07 3.815717e+30
1.759500e-07 3.766805e+30
1.776500e-07 3.714336e+30
1.793500e-07 3.658335e+30
1.810500e-07 3.598839e+30
1.827500e-07 3.535904e+30
1.844500e-07 3.469600e+30
1.861500e-07 3.400012e+30
1.878500e-07 3.327239e+30
1.895500e-07 3.251397e+30
1.912500e-07 3.172611e+30
1.929500e-07 3.091023e+30
1.946500e-07 3.006787e+30
1.963500e-07 2.920071e+30
1.980500e-07 2.831050e+30
1.997500e-07 2.739914e+30
2.014500e-07 2.646863e+30
2.031500e-07 2.552104e+30
2.048500e-07 2.455856e+30
2.065500e-07 2.358343e+30
2.082500e-07 2.259799e+30
2.099500e-07 2.160463e+30
2.116500e-07 2.060581e+30
2.133500e-07 1.960400e+30
2.150500e-07 1.860176e+30
2.167500e-07 1.760164e+30
2.184500e-07 1.660623e+30
2.201500e-07 1.561812e+30
2.218500e-07 1.463992e+30
2.235500e-07 1.367422e+30
2.252500e-07 1.272359e+30
2.269500e-07 1.179058e+30
2.286500e-07 1.087773e+30
2.303500e-07 1.532375e+30
2.320500e-07 1.395090e+30
2.337500e-07 1.259734e+30
2.354500e-07 1.127206e+30
2.371500e-07 9.983934e+29
2.388500e-07 8.741687e+29
2.405500e-07 3.393870e+28
2.422500e-07 2.952980e+28
2.439500e-07 2.569366e+28
2.456500e-07 2.235585e+28
2.473500e-07 1.945166e+28
2.490500e-07 1.692474e+28
2.507500e-07 1.472608e+28
2.524500e-07 1.281305e+28
2.541500e-07 1.114854e+28
2.558500e-07 9.700258e+27
2.575500e-07 8.440120e+27
2.592500e-07 7.343683e+27
2.609500e-07 6.389683e+27
2.626500e-07 5.559614e+27
2.643500e-07 4.837378e+27
2.660500e-07 4.208965e+27
2.677500e-07 3.662188e+27
2.694500e-07 3.186442e+27
2.711500e-07 2.772499e+27
2.728500e-07 2.412330e+27
2.745500e-07 2.098950e+27
2.762500e-07 1.826280e+27
2.779500e-07 1.589032e+27
2.796500e-07 1.382605e+27
2.813500e-07 1.202994e+27
2.830500e-07 1.046716e+27
2.847500e-07 9.107394e+26
2.864500e-07 7.924273e+26
2.881500e-07 6.894849e+26
2.898500e-07 5.999155e+26
2.915500e-07 5.219819e+26
2.932500e-07 4.541724e+26
2.949500e-07 3.951719e+26
2.966500e-07 3.438361e+26
2.983500e-07 2.991692e+26
3.000500e-07 2.603048e+26
3.017500e-07 2.264892e+26
3.034500e-07 1.970665e+26
3.051500e-07 1.714661e+26
3.068500e-07 1.491913e+26
3.085500e-07 1.298102e+26
3.102500e-07 1.129469e+26
3.119500e-07 9.827420e+25
3.136500e-07 8.550763e+25
3.153500e-07 7.439954e+25
3.170500e-07 6.473447e+25
3.187500e-07 5.632497e+25
3.204500e-07 4.900792e+25
3.221500e-07 4.264141e+25
3.238500e-07 3.710197e+25
3.255500e-07 3.228214e+25
3.272500e-07 2.808844e+25
3.289500e-07 2.443953e+25
3.306500e-07 2.126465e+25
3.323500e-07 1.850221e+25
3.340500e-07 1.609863e+25
3.357500e-07 1.400730e+25
3.374500e-07 1.218764e+25
3.391500e-07 1.060437e+25
